SpectraSuite Data File
++++++++++++++++++++++++++++++++++++
Date: Mon Apr 03 15:03:00 EST 2017
User: z5074895
Dark Spectrum Present: No
Reference Spectrum Present: No
Number of Sampled Component Spectra: 1
Spectrometers: USB2G24502
Integration Time (usec): 100000 (USB2G24502)
Spectra Averaged: 1 (USB2G24502)
Boxcar Smoothing: 0 (USB2G24502)
Correct for Electrical Dark: No (USB2G24502)
Strobe/Lamp Enabled: No (USB2G24502)
Correct for Detector Non-linearity: No (USB2G24502)
Correct for Stray Light: No (USB2G24502)
Number of Pixels in Processed Spectrum: 651
>>>>>Begin Processed Spectral Data<<<<<
350.00	137.90
351.00	141.11
352.00	145.80
353.00	148.40
354.00	144.87
355.00	142.56
356.00	147.16
357.00	147.44
358.00	148.03
359.00	148.57
360.00	147.64
361.00	144.07
362.00	147.19
363.00	155.39
364.00	144.78
365.00	143.76
366.00	135.68
367.00	145.25
368.00	154.50
369.00	163.71
370.00	176.24
371.00	187.05
372.00	186.38
373.00	169.08
374.00	162.82
375.00	154.24
376.00	150.11
377.00	148.07
378.00	154.82
379.00	159.60
380.00	166.43
381.00	173.93
382.00	180.56
383.00	252.92
384.00	174.47
385.00	171.58
386.00	180.77
387.00	196.27
388.00	217.58
389.00	130.47
390.00	4112.36
391.00	315.23
392.00	212.16
393.00	206.59
394.00	208.38
395.00	206.29
396.00	229.02
397.00	321.85
398.00	384.68
399.00	183.70
400.00	172.02
401.00	175.39
402.00	178.50
403.00	266.43
404.00	721.32
405.00	202.41
406.00	212.30
407.00	190.77
408.00	193.32
409.00	181.73
410.00	177.06
411.00	184.60
412.00	199.13
413.00	350.17
414.00	215.25
415.00	215.74
416.00	207.15
417.00	196.06
418.00	209.73
419.00	212.51
420.00	227.78
421.00	243.95
422.00	242.23
423.00	221.73
424.00	218.88
425.00	187.44
426.00	183.29
427.00	187.77
428.00	195.07
429.00	201.13
430.00	191.53
431.00	188.81
432.00	203.28
433.00	197.74
434.00	202.11
435.00	260.18
436.00	226.48
437.00	211.24
438.00	223.59
439.00	225.29
440.00	462.43
441.00	207.68
442.00	202.04
443.00	194.56
444.00	202.14
445.00	279.95
446.00	225.21
447.00	176.79
448.00	4260.26
449.00	1891.07
450.00	283.56
451.00	285.88
452.00	291.06
453.00	244.23
454.00	234.80
455.00	227.64
456.00	220.38
457.00	210.94
458.00	213.94
459.00	190.48
460.00	192.91
461.00	196.25
462.00	188.64
463.00	184.82
464.00	164.15
465.00	166.97
466.00	172.11
467.00	177.91
468.00	184.30
469.00	195.98
470.00	199.56
471.00	195.67
472.00	1637.14
473.00	827.04
474.00	219.10
475.00	208.67
476.00	205.04
477.00	210.02
478.00	210.86
479.00	199.79
480.00	201.86
481.00	208.45
482.00	233.97
483.00	259.62
484.00	321.81
485.00	223.45
486.00	191.24
487.00	515.68
488.00	280.77
489.00	213.52
490.00	209.31
491.00	211.54
492.00	206.38
493.00	1837.98
494.00	626.58
495.00	206.84
496.00	198.17
497.00	206.00
498.00	204.31
499.00	207.30
500.00	207.19
501.00	246.40
502.00	3725.97
503.00	4205.60
504.00	419.30
505.00	378.13
506.00	855.19
507.00	296.17
508.00	239.32
509.00	238.45
510.00	219.90
511.00	200.51
512.00	191.69
513.00	187.20
514.00	191.38
515.00	198.15
516.00	189.40
517.00	186.15
518.00	201.04
519.00	230.13
520.00	261.46
521.00	202.64
522.00	169.76
523.00	164.99
524.00	167.25
525.00	173.68
526.00	175.41
527.00	178.99
528.00	178.15
529.00	164.85
530.00	153.38
531.00	157.62
532.00	162.49
533.00	164.77
534.00	168.04
535.00	169.33
536.00	164.70
537.00	156.68
538.00	164.82
539.00	164.86
540.00	162.14
541.00	150.65
542.00	152.56
543.00	156.73
544.00	159.00
545.00	153.61
546.00	153.41
547.00	161.10
548.00	158.46
549.00	149.28
550.00	155.94
551.00	152.86
552.00	162.31
553.00	157.36
554.00	169.09
555.00	172.11
556.00	173.10
557.00	171.55
558.00	166.97
559.00	172.91
560.00	177.46
561.00	200.02
562.00	196.12
563.00	161.95
564.00	155.33
565.00	153.66
566.00	154.26
567.00	157.86
568.00	177.76
569.00	183.46
570.00	180.05
571.00	186.56
572.00	189.12
573.00	177.61
574.00	166.67
575.00	170.13
576.00	188.74
577.00	196.97
578.00	185.73
579.00	187.07
580.00	179.33
581.00	182.51
582.00	182.15
583.00	201.97
584.00	208.23
585.00	194.14
586.00	208.87
587.00	352.12
588.00	4399.83
589.00	4102.17
590.00	3527.23
591.00	337.95
592.00	212.01
593.00	185.51
594.00	181.57
595.00	173.45
596.00	164.79
597.00	160.80
598.00	158.80
599.00	164.15
600.00	169.98
601.00	169.99
602.00	171.34
603.00	167.50
604.00	174.86
605.00	173.97
606.00	170.21
607.00	168.73
608.00	169.90
609.00	158.08
610.00	147.92
611.00	141.86
612.00	136.15
613.00	143.72
614.00	143.09
615.00	139.98
616.00	146.41
617.00	158.69
618.00	135.96
619.00	133.65
620.00	137.23
621.00	134.59
622.00	130.93
623.00	131.01
624.00	133.68
625.00	128.81
626.00	134.17
627.00	143.15
628.00	138.57
629.00	137.21
630.00	135.29
631.00	128.40
632.00	128.99
633.00	124.93
634.00	128.63
635.00	130.37
636.00	127.24
637.00	127.50
638.00	129.10
639.00	131.57
640.00	134.43
641.00	141.23
642.00	142.80
643.00	138.28
644.00	141.30
645.00	145.42
646.00	144.63
647.00	152.85
648.00	149.40
649.00	145.41
650.00	143.08
651.00	137.08
652.00	140.51
653.00	142.30
654.00	147.01
655.00	150.38
656.00	149.37
657.00	757.91
658.00	335.75
659.00	207.70
660.00	147.47
661.00	145.59
662.00	149.03
663.00	146.29
664.00	157.58
665.00	161.53
666.00	160.35
667.00	179.80
668.00	2923.51
669.00	4095.55
670.00	3106.68
671.00	533.71
672.00	194.42
673.00	155.43
674.00	151.46
675.00	141.38
676.00	140.02
677.00	140.35
678.00	138.85
679.00	131.73
680.00	126.89
681.00	134.78
682.00	132.47
683.00	129.03
684.00	131.84
685.00	127.75
686.00	128.87
687.00	128.97
688.00	123.08
689.00	127.90
690.00	123.91
691.00	132.43
692.00	133.09
693.00	139.09
694.00	136.44
695.00	136.53
696.00	136.83
697.00	142.78
698.00	150.01
699.00	143.16
700.00	138.67
701.00	144.59
702.00	137.89
703.00	148.49
704.00	154.91
705.00	149.61
706.00	229.32
707.00	4454.92
708.00	4154.09
709.00	1274.28
710.00	321.76
711.00	158.00
712.00	142.72
713.00	138.09
714.00	130.31
715.00	132.28
716.00	134.32
717.00	135.22
718.00	134.00
719.00	129.55
720.00	135.02
721.00	127.96
722.00	129.34
723.00	126.06
724.00	129.11
725.00	136.05
726.00	138.63
727.00	140.15
728.00	141.21
729.00	2680.56
730.00	844.69
731.00	334.47
732.00	152.74
733.00	129.64
734.00	127.23
735.00	130.40
736.00	122.92
737.00	125.57
738.00	122.37
739.00	119.31
740.00	119.28
741.00	120.84
742.00	119.24
743.00	117.79
744.00	119.03
745.00	121.23
746.00	119.77
747.00	116.99
748.00	122.35
749.00	118.19
750.00	116.89
751.00	120.00
752.00	118.05
753.00	110.66
754.00	114.92
755.00	119.09
756.00	118.91
757.00	119.44
758.00	119.67
759.00	121.33
760.00	120.96
761.00	121.77
762.00	118.91
763.00	120.08
764.00	118.06
765.00	119.25
766.00	120.34
767.00	118.71
768.00	119.87
769.00	120.01
770.00	118.03
771.00	118.72
772.00	114.13
773.00	115.97
774.00	116.92
775.00	115.59
776.00	116.35
777.00	114.55
778.00	239.20
779.00	166.78
780.00	134.69
781.00	119.77
782.00	120.00
783.00	117.15
784.00	117.29
785.00	123.11
786.00	117.26
787.00	118.10
788.00	116.27
789.00	122.34
790.00	118.31
791.00	117.97
792.00	119.07
793.00	117.90
794.00	115.26
795.00	118.77
796.00	121.49
797.00	118.76
798.00	119.03
799.00	123.82
800.00	118.17
801.00	119.11
802.00	117.03
803.00	116.38
804.00	113.85
805.00	116.51
806.00	118.88
807.00	115.07
808.00	117.58
809.00	117.01
810.00	115.94
811.00	115.95
812.00	115.82
813.00	115.11
814.00	116.31
815.00	115.93
816.00	118.23
817.00	115.97
818.00	118.87
819.00	117.92
820.00	119.00
821.00	117.29
822.00	117.95
823.00	118.90
824.00	117.05
825.00	122.43
826.00	119.03
827.00	114.20
828.00	116.51
829.00	116.58
830.00	116.85
831.00	113.91
832.00	113.99
833.00	118.15
834.00	116.28
835.00	112.66
836.00	113.91
837.00	114.83
838.00	116.76
839.00	116.95
840.00	117.48
841.00	116.00
842.00	120.13
843.00	120.92
844.00	120.47
845.00	141.28
846.00	141.63
847.00	125.00
848.00	119.81
849.00	120.10
850.00	118.42
851.00	105.94
852.00	112.97
853.00	116.07
854.00	115.85
855.00	116.43
856.00	116.40
857.00	114.97
858.00	116.27
859.00	114.47
860.00	116.71
861.00	116.92
862.00	116.85
863.00	120.99
864.00	118.82
865.00	116.28
866.00	113.96
867.00	115.09
868.00	115.71
869.00	115.22
870.00	116.84
871.00	116.05
872.00	117.44
873.00	118.26
874.00	120.50
875.00	115.07
876.00	118.16
877.00	116.38
878.00	115.56
879.00	114.10
880.00	119.73
881.00	116.21
882.00	116.79
883.00	117.04
884.00	116.40
885.00	118.00
886.00	116.37
887.00	117.04
888.00	116.21
889.00	115.78
890.00	113.25
891.00	113.06
892.00	116.42
893.00	120.27
894.00	112.89
895.00	111.60
896.00	118.24
897.00	117.28
898.00	117.76
899.00	116.29
900.00	116.50
901.00	113.02
902.00	118.04
903.00	115.63
904.00	117.94
905.00	116.58
906.00	113.24
907.00	119.79
908.00	117.96
909.00	115.62
910.00	119.87
911.00	113.77
912.00	115.41
913.00	115.74
914.00	117.00
915.00	117.56
916.00	116.66
917.00	115.94
918.00	117.00
919.00	113.02
920.00	116.06
921.00	109.17
922.00	115.30
923.00	120.05
924.00	115.25
925.00	115.27
926.00	114.98
927.00	126.02
928.00	116.09
929.00	117.05
930.00	118.83
931.00	113.64
932.00	116.78
933.00	119.27
934.00	115.07
935.00	119.10
936.00	114.54
937.00	116.16
938.00	114.19
939.00	116.89
940.00	113.02
941.00	118.47
942.00	115.07
943.00	117.62
944.00	114.98
945.00	114.04
946.00	115.95
947.00	115.14
948.00	118.91
949.00	116.81
950.00	118.41
951.00	116.38
952.00	116.57
953.00	115.98
954.00	117.76
955.00	117.16
956.00	115.85
957.00	112.51
958.00	116.45
959.00	115.40
960.00	118.00
961.00	116.19
962.00	115.25
963.00	117.49
964.00	115.50
965.00	116.45
966.00	116.16
967.00	120.00
968.00	115.94
969.00	116.87
970.00	110.41
971.00	118.60
972.00	115.68
973.00	117.83
974.00	118.13
975.00	115.49
976.00	119.98
977.00	116.89
978.00	121.00
979.00	115.01
980.00	118.20
981.00	117.13
982.00	116.15
983.00	117.85
984.00	116.25
985.00	116.99
986.00	115.82
987.00	116.49
988.00	115.12
989.00	120.31
990.00	115.46
991.00	116.82
992.00	116.48
993.00	117.67
994.00	116.97
995.00	113.57
996.00	113.80
997.00	116.38
998.00	118.45
999.00	116.49
1000.00	116.22
>>>>>End Processed Spectral Data<<<<<
