SpectraSuite Data File
++++++++++++++++++++++++++++++++++++
Date: Mon Apr 03 15:10:05 EST 2017
User: z5074895
Dark Spectrum Present: No
Reference Spectrum Present: No
Number of Sampled Component Spectra: 1
Spectrometers: USB2G24502
Integration Time (usec): 100000 (USB2G24502)
Spectra Averaged: 1 (USB2G24502)
Boxcar Smoothing: 0 (USB2G24502)
Correct for Electrical Dark: No (USB2G24502)
Strobe/Lamp Enabled: No (USB2G24502)
Correct for Detector Non-linearity: No (USB2G24502)
Correct for Stray Light: No (USB2G24502)
Number of Pixels in Processed Spectrum: 651
>>>>>Begin Processed Spectral Data<<<<<
350.00	110.25
351.00	114.82
352.00	111.41
353.00	115.87
354.00	114.80
355.00	112.58
356.00	111.04
357.00	111.37
358.00	114.44
359.00	110.80
360.00	114.16
361.00	113.57
362.00	113.02
363.00	112.73
364.00	115.97
365.00	116.62
366.00	113.97
367.00	117.23
368.00	115.87
369.00	116.77
370.00	118.27
371.00	119.99
372.00	125.15
373.00	118.43
374.00	116.40
375.00	117.60
376.00	123.40
377.00	118.34
378.00	118.91
379.00	122.27
380.00	122.63
381.00	125.02
382.00	122.17
383.00	123.18
384.00	125.86
385.00	131.35
386.00	125.34
387.00	132.91
388.00	128.97
389.00	129.94
390.00	129.71
391.00	132.49
392.00	128.81
393.00	139.92
394.00	134.98
395.00	143.42
396.00	147.06
397.00	146.00
398.00	148.72
399.00	152.71
400.00	160.17
401.00	162.39
402.00	158.39
403.00	166.32
404.00	163.96
405.00	163.39
406.00	164.01
407.00	166.08
408.00	165.96
409.00	165.92
410.00	161.96
411.00	171.27
412.00	170.52
413.00	175.91
414.00	179.49
415.00	176.89
416.00	191.03
417.00	190.01
418.00	203.43
419.00	211.08
420.00	220.04
421.00	235.15
422.00	236.25
423.00	243.40
424.00	240.86
425.00	255.61
426.00	255.50
427.00	261.11
428.00	255.68
429.00	254.02
430.00	244.67
431.00	248.12
432.00	247.73
433.00	252.01
434.00	252.35
435.00	258.31
436.00	254.20
437.00	266.32
438.00	280.18
439.00	289.33
440.00	313.25
441.00	321.79
442.00	326.32
443.00	356.96
444.00	376.02
445.00	402.82
446.00	412.05
447.00	417.23
448.00	413.91
449.00	419.96
450.00	434.94
451.00	418.25
452.00	411.80
453.00	411.11
454.00	410.29
455.00	405.91
456.00	391.95
457.00	390.45
458.00	386.82
459.00	393.96
460.00	394.78
461.00	412.31
462.00	427.37
463.00	444.03
464.00	459.00
465.00	479.63
466.00	506.26
467.00	525.18
468.00	546.37
469.00	580.89
470.00	591.34
471.00	615.08
472.00	627.83
473.00	653.70
474.00	675.31
475.00	705.17
476.00	719.64
477.00	718.64
478.00	719.67
479.00	746.18
480.00	734.41
481.00	725.70
482.00	750.17
483.00	763.37
484.00	774.19
485.00	779.38
486.00	799.59
487.00	805.57
488.00	809.43
489.00	811.09
490.00	816.53
491.00	831.79
492.00	814.18
493.00	808.12
494.00	803.13
495.00	792.93
496.00	783.22
497.00	754.01
498.00	737.86
499.00	722.06
500.00	709.03
501.00	699.01
502.00	702.61
503.00	698.60
504.00	706.79
505.00	711.63
506.00	715.44
507.00	779.01
508.00	789.22
509.00	790.05
510.00	867.12
511.00	905.31
512.00	933.52
513.00	997.38
514.00	1060.68
515.00	1095.58
516.00	1147.64
517.00	1188.21
518.00	1196.05
519.00	1208.85
520.00	1190.10
521.00	1180.33
522.00	1136.56
523.00	1097.32
524.00	1010.78
525.00	970.01
526.00	916.62
527.00	866.62
528.00	849.02
529.00	816.14
530.00	799.30
531.00	814.79
532.00	821.00
533.00	845.27
534.00	890.41
535.00	946.12
536.00	999.06
537.00	1041.25
538.00	1056.39
539.00	1007.98
540.00	871.79
541.00	720.15
542.00	561.31
543.00	446.60
544.00	340.18
545.00	288.93
546.00	232.07
547.00	216.83
548.00	184.67
549.00	176.70
550.00	160.08
551.00	152.92
552.00	145.02
553.00	142.92
554.00	138.99
555.00	131.84
556.00	129.88
557.00	131.66
558.00	125.97
559.00	126.35
560.00	123.35
561.00	122.98
562.00	121.49
563.00	119.56
564.00	119.93
565.00	120.23
566.00	121.44
567.00	119.05
568.00	109.72
569.00	114.93
570.00	115.89
571.00	114.34
572.00	117.81
573.00	114.19
574.00	112.06
575.00	113.37
576.00	116.31
577.00	116.63
578.00	114.82
579.00	116.96
580.00	115.05
581.00	111.61
582.00	110.70
583.00	116.81
584.00	117.96
585.00	113.94
586.00	113.29
587.00	113.61
588.00	114.27
589.00	114.14
590.00	112.54
591.00	113.11
592.00	118.00
593.00	118.85
594.00	114.87
595.00	113.32
596.00	111.50
597.00	113.43
598.00	114.52
599.00	109.08
600.00	113.18
601.00	114.77
602.00	118.35
603.00	112.76
604.00	113.60
605.00	113.51
606.00	113.92
607.00	116.25
608.00	117.62
609.00	115.45
610.00	111.24
611.00	117.25
612.00	113.88
613.00	115.09
614.00	112.00
615.00	117.82
616.00	112.35
617.00	116.35
618.00	113.98
619.00	113.61
620.00	117.45
621.00	116.10
622.00	116.96
623.00	118.01
624.00	116.97
625.00	115.47
626.00	114.71
627.00	115.77
628.00	113.59
629.00	115.71
630.00	115.73
631.00	114.77
632.00	116.03
633.00	111.92
634.00	114.45
635.00	114.03
636.00	115.12
637.00	116.81
638.00	116.07
639.00	113.68
640.00	113.05
641.00	113.12
642.00	111.99
643.00	124.80
644.00	114.00
645.00	114.49
646.00	112.67
647.00	114.22
648.00	113.54
649.00	115.85
650.00	116.24
651.00	117.30
652.00	117.89
653.00	118.01
654.00	113.00
655.00	116.90
656.00	109.94
657.00	120.02
658.00	115.80
659.00	115.03
660.00	115.20
661.00	115.93
662.00	118.49
663.00	114.96
664.00	113.04
665.00	115.67
666.00	117.01
667.00	117.17
668.00	118.00
669.00	113.18
670.00	110.63
671.00	115.92
672.00	117.05
673.00	111.69
674.00	113.67
675.00	115.71
676.00	114.26
677.00	117.28
678.00	114.92
679.00	114.16
680.00	117.26
681.00	117.34
682.00	115.28
683.00	118.18
684.00	113.82
685.00	116.72
686.00	114.87
687.00	114.01
688.00	116.02
689.00	114.02
690.00	113.81
691.00	117.15
692.00	114.38
693.00	115.19
694.00	118.02
695.00	117.27
696.00	118.48
697.00	119.46
698.00	118.02
699.00	117.22
700.00	120.59
701.00	120.79
702.00	118.00
703.00	119.81
704.00	122.38
705.00	118.70
706.00	118.89
707.00	119.16
708.00	119.03
709.00	119.65
710.00	119.53
711.00	121.25
712.00	121.77
713.00	120.69
714.00	128.41
715.00	122.96
716.00	129.21
717.00	131.32
718.00	129.60
719.00	133.18
720.00	134.64
721.00	136.97
722.00	144.82
723.00	142.30
724.00	153.29
725.00	156.00
726.00	159.06
727.00	166.00
728.00	172.95
729.00	186.54
730.00	198.07
731.00	224.53
732.00	244.92
733.00	273.87
734.00	311.68
735.00	359.91
736.00	416.86
737.00	481.73
738.00	579.20
739.00	681.13
740.00	816.61
741.00	943.29
742.00	1063.21
743.00	1137.10
744.00	1168.04
745.00	1139.17
746.00	1060.53
747.00	985.48
748.00	866.23
749.00	805.79
750.00	706.74
751.00	654.96
752.00	611.25
753.00	564.51
754.00	516.35
755.00	495.25
756.00	460.53
757.00	430.99
758.00	421.26
759.00	408.74
760.00	399.90
761.00	382.51
762.00	371.09
763.00	362.80
764.00	357.33
765.00	363.66
766.00	352.41
767.00	347.54
768.00	340.84
769.00	341.02
770.00	340.89
771.00	345.01
772.00	340.08
773.00	342.98
774.00	345.97
775.00	344.27
776.00	351.40
777.00	352.94
778.00	362.46
779.00	363.29
780.00	366.94
781.00	388.18
782.00	396.01
783.00	391.35
784.00	399.79
785.00	404.24
786.00	413.15
787.00	428.63
788.00	443.05
789.00	453.48
790.00	479.75
791.00	485.33
792.00	502.28
793.00	515.53
794.00	535.14
795.00	567.46
796.00	576.65
797.00	609.77
798.00	610.69
799.00	621.68
800.00	641.27
801.00	649.99
802.00	675.28
803.00	656.36
804.00	698.42
805.00	688.05
806.00	680.57
807.00	683.40
808.00	661.63
809.00	663.46
810.00	653.00
811.00	640.51
812.00	626.57
813.00	615.04
814.00	606.19
815.00	605.85
816.00	588.42
817.00	574.03
818.00	565.90
819.00	558.97
820.00	539.44
821.00	528.62
822.00	525.01
823.00	507.04
824.00	490.00
825.00	491.80
826.00	482.02
827.00	467.46
828.00	472.82
829.00	464.47
830.00	460.18
831.00	454.38
832.00	452.26
833.00	437.46
834.00	433.79
835.00	421.30
836.00	424.99
837.00	426.93
838.00	414.45
839.00	418.00
840.00	419.65
841.00	416.48
842.00	422.07
843.00	410.54
844.00	415.03
845.00	417.56
846.00	415.83
847.00	411.95
848.00	406.93
849.00	402.38
850.00	406.49
851.00	412.51
852.00	394.76
853.00	408.06
854.00	402.58
855.00	404.94
856.00	392.76
857.00	391.05
858.00	406.11
859.00	411.00
860.00	407.06
861.00	401.79
862.00	392.15
863.00	387.41
864.00	403.12
865.00	390.78
866.00	388.35
867.00	378.78
868.00	388.96
869.00	382.74
870.00	382.45
871.00	372.99
872.00	378.30
873.00	377.48
874.00	373.16
875.00	369.49
876.00	363.87
877.00	356.88
878.00	354.98
879.00	352.68
880.00	329.02
881.00	340.63
882.00	333.14
883.00	322.73
884.00	327.97
885.00	326.33
886.00	315.33
887.00	318.31
888.00	315.46
889.00	318.11
890.00	308.55
891.00	297.47
892.00	301.75
893.00	308.13
894.00	306.17
895.00	294.21
896.00	300.67
897.00	296.12
898.00	287.74
899.00	289.32
900.00	284.64
901.00	286.94
902.00	284.37
903.00	274.48
904.00	273.58
905.00	268.79
906.00	272.29
907.00	259.51
908.00	271.03
909.00	256.58
910.00	253.67
911.00	247.83
912.00	252.17
913.00	251.31
914.00	249.02
915.00	242.49
916.00	240.19
917.00	225.02
918.00	227.84
919.00	232.00
920.00	228.11
921.00	228.79
922.00	222.82
923.00	224.86
924.00	218.94
925.00	219.46
926.00	212.13
927.00	213.91
928.00	201.87
929.00	205.18
930.00	206.21
931.00	198.20
932.00	198.72
933.00	200.52
934.00	192.70
935.00	183.41
936.00	189.58
937.00	195.20
938.00	175.29
939.00	166.37
940.00	162.02
941.00	157.36
942.00	159.73
943.00	158.86
944.00	154.22
945.00	151.95
946.00	155.26
947.00	152.73
948.00	152.91
949.00	155.62
950.00	151.21
951.00	152.59
952.00	154.88
953.00	153.75
954.00	161.22
955.00	156.15
956.00	159.54
957.00	160.62
958.00	164.31
959.00	157.44
960.00	160.03
961.00	162.54
962.00	158.43
963.00	162.02
964.00	165.91
965.00	166.20
966.00	166.58
967.00	180.10
968.00	161.97
969.00	161.12
970.00	160.78
971.00	161.90
972.00	159.10
973.00	159.74
974.00	161.12
975.00	157.72
976.00	154.05
977.00	156.43
978.00	158.98
979.00	157.44
980.00	157.67
981.00	153.22
982.00	153.73
983.00	151.14
984.00	152.57
985.00	148.77
986.00	146.63
987.00	148.44
988.00	144.64
989.00	144.70
990.00	145.39
991.00	144.81
992.00	142.32
993.00	145.60
994.00	140.42
995.00	143.37
996.00	137.22
997.00	144.33
998.00	134.06
999.00	145.10
1000.00	136.93
>>>>>End Processed Spectral Data<<<<<
