SpectraSuite Data File
++++++++++++++++++++++++++++++++++++
Date: Mon Apr 03 15:06:13 EST 2017
User: z5074895
Dark Spectrum Present: No
Reference Spectrum Present: No
Number of Sampled Component Spectra: 1
Spectrometers: USB2G24502
Integration Time (usec): 100000 (USB2G24502)
Spectra Averaged: 1 (USB2G24502)
Boxcar Smoothing: 0 (USB2G24502)
Correct for Electrical Dark: No (USB2G24502)
Strobe/Lamp Enabled: No (USB2G24502)
Correct for Detector Non-linearity: No (USB2G24502)
Correct for Stray Light: No (USB2G24502)
Number of Pixels in Processed Spectrum: 651
>>>>>Begin Processed Spectral Data<<<<<
350.00	111.85
351.00	110.77
352.00	114.89
353.00	117.27
354.00	113.54
355.00	113.61
356.00	113.31
357.00	110.49
358.00	110.17
359.00	113.90
360.00	112.61
361.00	114.58
362.00	113.95
363.00	112.92
364.00	112.14
365.00	115.84
366.00	112.69
367.00	114.16
368.00	112.37
369.00	112.09
370.00	113.50
371.00	113.66
372.00	115.20
373.00	114.29
374.00	113.83
375.00	111.08
376.00	117.47
377.00	113.40
378.00	114.00
379.00	113.47
380.00	114.36
381.00	114.01
382.00	115.90
383.00	114.62
384.00	113.99
385.00	114.68
386.00	116.64
387.00	118.91
388.00	116.06
389.00	111.72
390.00	113.52
391.00	117.69
392.00	114.75
393.00	114.01
394.00	113.99
395.00	115.20
396.00	114.96
397.00	117.00
398.00	113.66
399.00	113.33
400.00	114.29
401.00	117.98
402.00	111.97
403.00	115.82
404.00	112.19
405.00	113.53
406.00	115.62
407.00	114.90
408.00	117.77
409.00	114.84
410.00	113.87
411.00	112.52
412.00	116.59
413.00	116.86
414.00	109.95
415.00	116.87
416.00	114.18
417.00	112.00
418.00	112.86
419.00	118.28
420.00	117.74
421.00	118.90
422.00	115.09
423.00	116.81
424.00	118.98
425.00	116.25
426.00	117.88
427.00	115.32
428.00	119.67
429.00	117.26
430.00	118.21
431.00	113.03
432.00	113.85
433.00	113.32
434.00	117.74
435.00	113.29
436.00	114.38
437.00	116.06
438.00	118.04
439.00	121.01
440.00	116.13
441.00	115.33
442.00	116.08
443.00	114.79
444.00	113.63
445.00	114.88
446.00	110.64
447.00	116.47
448.00	115.71
449.00	101.13
450.00	113.25
451.00	117.89
452.00	115.28
453.00	116.00
454.00	116.38
455.00	118.40
456.00	123.83
457.00	120.15
458.00	123.46
459.00	115.55
460.00	117.78
461.00	117.22
462.00	114.44
463.00	112.84
464.00	118.13
465.00	118.71
466.00	113.17
467.00	114.28
468.00	117.08
469.00	116.27
470.00	121.64
471.00	113.72
472.00	120.03
473.00	122.85
474.00	119.70
475.00	121.40
476.00	117.95
477.00	115.02
478.00	115.41
479.00	116.20
480.00	116.86
481.00	113.28
482.00	116.39
483.00	117.32
484.00	118.13
485.00	120.23
486.00	118.21
487.00	119.07
488.00	116.07
489.00	119.17
490.00	115.10
491.00	116.85
492.00	112.42
493.00	116.81
494.00	112.77
495.00	114.39
496.00	118.26
497.00	115.01
498.00	115.31
499.00	114.54
500.00	117.04
501.00	115.84
502.00	114.16
503.00	118.50
504.00	113.95
505.00	128.27
506.00	123.19
507.00	119.85
508.00	121.12
509.00	122.82
510.00	122.84
511.00	115.96
512.00	119.72
513.00	125.49
514.00	124.01
515.00	118.02
516.00	120.04
517.00	120.20
518.00	118.92
519.00	117.77
520.00	119.12
521.00	115.27
522.00	119.34
523.00	116.82
524.00	118.02
525.00	116.98
526.00	113.30
527.00	118.42
528.00	119.66
529.00	116.01
530.00	114.04
531.00	116.33
532.00	119.08
533.00	116.73
534.00	124.08
535.00	136.62
536.00	135.56
537.00	121.85
538.00	117.48
539.00	117.16
540.00	118.75
541.00	133.09
542.00	140.07
543.00	120.17
544.00	113.25
545.00	116.60
546.00	115.96
547.00	117.23
548.00	116.70
549.00	116.23
550.00	112.74
551.00	118.74
552.00	118.01
553.00	118.07
554.00	113.96
555.00	112.98
556.00	118.54
557.00	119.16
558.00	120.62
559.00	104.31
560.00	115.26
561.00	113.05
562.00	119.22
563.00	117.01
564.00	115.70
565.00	116.84
566.00	122.95
567.00	126.93
568.00	125.29
569.00	119.33
570.00	122.37
571.00	128.40
572.00	123.97
573.00	122.43
574.00	125.06
575.00	132.62
576.00	135.02
577.00	149.64
578.00	182.82
579.00	152.46
580.00	128.32
581.00	136.49
582.00	145.59
583.00	161.74
584.00	166.22
585.00	164.21
586.00	903.53
587.00	1670.03
588.00	453.03
589.00	487.53
590.00	681.52
591.00	270.85
592.00	195.00
593.00	170.44
594.00	159.61
595.00	496.23
596.00	1239.28
597.00	473.06
598.00	282.94
599.00	443.23
600.00	250.39
601.00	171.86
602.00	156.00
603.00	169.41
604.00	390.13
605.00	399.37
606.00	203.75
607.00	180.51
608.00	553.56
609.00	1341.02
610.00	847.64
611.00	1841.22
612.00	767.97
613.00	286.12
614.00	259.02
615.00	1237.87
616.00	2533.06
617.00	1030.49
618.00	992.23
619.00	377.84
620.00	205.69
621.00	174.59
622.00	298.20
623.00	784.90
624.00	463.11
625.00	222.16
626.00	180.90
627.00	432.14
628.00	1314.49
629.00	743.69
630.00	274.73
631.00	354.42
632.00	687.94
633.00	382.70
634.00	864.94
635.00	2201.01
636.00	810.90
637.00	309.95
638.00	216.50
639.00	825.50
640.00	1718.83
641.00	2789.39
642.00	4090.79
643.00	1272.17
644.00	364.03
645.00	231.15
646.00	199.17
647.00	187.35
648.00	181.85
649.00	179.26
650.00	184.80
651.00	662.34
652.00	2185.00
653.00	1218.64
654.00	638.97
655.00	805.29
656.00	358.84
657.00	192.06
658.00	166.10
659.00	152.89
660.00	224.68
661.00	755.94
662.00	750.77
663.00	271.49
664.00	162.22
665.00	148.08
666.00	152.85
667.00	156.37
668.00	366.91
669.00	1476.28
670.00	1214.03
671.00	380.92
672.00	362.96
673.00	994.10
674.00	728.39
675.00	245.78
676.00	151.67
677.00	138.76
678.00	141.92
679.00	133.79
680.00	129.31
681.00	124.58
682.00	124.16
683.00	129.47
684.00	124.61
685.00	126.08
686.00	126.34
687.00	129.00
688.00	128.04
689.00	129.03
690.00	125.15
691.00	124.90
692.00	131.48
693.00	225.66
694.00	835.04
695.00	991.55
696.00	354.04
697.00	170.06
698.00	144.11
699.00	138.31
700.00	140.22
701.00	138.47
702.00	141.71
703.00	173.90
704.00	943.02
705.00	1761.70
706.00	777.73
707.00	251.57
708.00	166.95
709.00	146.81
710.00	133.55
711.00	130.69
712.00	121.97
713.00	124.53
714.00	127.44
715.00	125.65
716.00	125.09
717.00	122.19
718.00	205.84
719.00	341.50
720.00	232.33
721.00	143.47
722.00	131.27
723.00	129.90
724.00	126.77
725.00	346.34
726.00	836.95
727.00	535.81
728.00	203.85
729.00	136.24
730.00	124.68
731.00	122.64
732.00	122.87
733.00	121.66
734.00	120.24
735.00	116.09
736.00	117.67
737.00	116.43
738.00	115.83
739.00	112.19
740.00	117.68
741.00	116.49
742.00	115.49
743.00	118.91
744.00	134.04
745.00	252.24
746.00	268.11
747.00	169.76
748.00	125.75
749.00	124.72
750.00	150.61
751.00	159.99
752.00	135.64
753.00	119.80
754.00	122.61
755.00	152.81
756.00	162.98
757.00	133.72
758.00	115.29
759.00	112.08
760.00	113.68
761.00	116.93
762.00	114.73
763.00	110.59
764.00	116.37
765.00	113.71
766.00	113.33
767.00	116.20
768.00	119.16
769.00	113.01
770.00	114.00
771.00	111.07
772.00	113.24
773.00	117.18
774.00	112.76
775.00	113.89
776.00	114.40
777.00	113.31
778.00	114.36
779.00	111.04
780.00	113.84
781.00	113.96
782.00	110.00
783.00	112.02
784.00	114.36
785.00	112.97
786.00	112.04
787.00	112.40
788.00	111.89
789.00	112.22
790.00	115.37
791.00	112.72
792.00	113.97
793.00	112.02
794.00	117.05
795.00	116.42
796.00	120.30
797.00	115.83
798.00	113.62
799.00	114.69
800.00	111.81
801.00	111.87
802.00	112.03
803.00	114.00
804.00	112.33
805.00	114.72
806.00	112.49
807.00	112.47
808.00	111.73
809.00	113.41
810.00	119.05
811.00	109.15
812.00	111.09
813.00	112.97
814.00	113.89
815.00	118.39
816.00	117.08
817.00	116.01
818.00	112.24
819.00	113.37
820.00	112.04
821.00	113.00
822.00	114.06
823.00	114.88
824.00	110.95
825.00	121.23
826.00	114.18
827.00	115.17
828.00	117.67
829.00	118.45
830.00	118.96
831.00	123.03
832.00	128.65
833.00	122.45
834.00	116.12
835.00	114.71
836.00	116.10
837.00	114.17
838.00	128.22
839.00	156.88
840.00	178.31
841.00	138.37
842.00	120.11
843.00	122.06
844.00	128.59
845.00	118.89
846.00	118.75
847.00	119.05
848.00	115.14
849.00	117.61
850.00	122.79
851.00	149.21
852.00	140.06
853.00	122.96
854.00	113.45
855.00	113.96
856.00	110.36
857.00	116.01
858.00	116.95
859.00	119.33
860.00	124.64
861.00	127.41
862.00	123.99
863.00	116.63
864.00	115.72
865.00	122.64
866.00	125.74
867.00	136.78
868.00	127.72
869.00	124.53
870.00	119.94
871.00	117.94
872.00	124.86
873.00	116.20
874.00	114.40
875.00	113.95
876.00	114.14
877.00	114.56
878.00	116.08
879.00	123.04
880.00	128.74
881.00	131.30
882.00	115.84
883.00	115.96
884.00	114.55
885.00	109.63
886.00	112.15
887.00	117.21
888.00	115.73
889.00	120.45
890.00	114.86
891.00	113.75
892.00	116.13
893.00	115.57
894.00	116.02
895.00	114.97
896.00	109.96
897.00	113.67
898.00	111.88
899.00	115.87
900.00	112.31
901.00	112.00
902.00	109.01
903.00	111.78
904.00	114.20
905.00	115.59
906.00	113.56
907.00	112.53
908.00	111.95
909.00	114.99
910.00	112.37
911.00	114.15
912.00	111.33
913.00	112.17
914.00	113.99
915.00	112.51
916.00	116.80
917.00	111.98
918.00	115.27
919.00	114.35
920.00	112.10
921.00	112.55
922.00	114.51
923.00	112.08
924.00	114.41
925.00	112.26
926.00	108.99
927.00	114.07
928.00	114.14
929.00	113.96
930.00	112.15
931.00	113.53
932.00	112.00
933.00	113.88
934.00	116.58
935.00	109.78
936.00	116.43
937.00	112.88
938.00	113.61
939.00	112.75
940.00	110.96
941.00	111.19
942.00	114.63
943.00	117.44
944.00	113.07
945.00	108.13
946.00	114.23
947.00	115.81
948.00	113.90
949.00	110.12
950.00	111.26
951.00	108.72
952.00	112.68
953.00	112.04
954.00	113.38
955.00	110.01
956.00	110.04
957.00	111.20
958.00	114.76
959.00	111.64
960.00	112.00
961.00	112.59
962.00	110.14
963.00	113.90
964.00	112.70
965.00	111.12
966.00	108.13
967.00	110.99
968.00	111.84
969.00	113.81
970.00	113.04
971.00	113.52
972.00	113.81
973.00	111.30
974.00	115.79
975.00	110.91
976.00	111.97
977.00	110.24
978.00	116.02
979.00	113.80
980.00	112.72
981.00	112.85
982.00	108.79
983.00	111.93
984.00	114.04
985.00	112.20
986.00	111.81
987.00	113.19
988.00	114.39
989.00	115.91
990.00	115.44
991.00	112.98
992.00	111.45
993.00	114.21
994.00	111.22
995.00	112.87
996.00	113.34
997.00	115.95
998.00	110.89
999.00	113.45
1000.00	111.19
>>>>>End Processed Spectral Data<<<<<
