SpectraSuite Data File
++++++++++++++++++++++++++++++++++++
Date: Mon Apr 03 14:55:32 EST 2017
User: z5074895
Dark Spectrum Present: No
Reference Spectrum Present: No
Number of Sampled Component Spectra: 1
Spectrometers: USB2G24502
Integration Time (usec): 100000 (USB2G24502)
Spectra Averaged: 1 (USB2G24502)
Boxcar Smoothing: 0 (USB2G24502)
Correct for Electrical Dark: No (USB2G24502)
Strobe/Lamp Enabled: No (USB2G24502)
Correct for Detector Non-linearity: No (USB2G24502)
Correct for Stray Light: No (USB2G24502)
Number of Pixels in Processed Spectrum: 651
>>>>>Begin Processed Spectral Data<<<<<
350.00	138.97
351.00	139.05
352.00	139.48
353.00	135.10
354.00	137.38
355.00	135.80
356.00	132.25
357.00	138.88
358.00	135.10
359.00	140.73
360.00	135.33
361.00	134.48
362.00	135.93
363.00	140.19
364.00	134.76
365.00	139.55
366.00	139.89
367.00	136.69
368.00	133.47
369.00	135.12
370.00	140.48
371.00	147.49
372.00	137.96
373.00	135.54
374.00	137.91
375.00	137.43
376.00	144.36
377.00	136.94
378.00	140.02
379.00	138.04
380.00	135.47
381.00	140.12
382.00	136.21
383.00	139.24
384.00	137.05
385.00	135.29
386.00	139.96
387.00	140.18
388.00	141.15
389.00	136.87
390.00	136.46
391.00	135.61
392.00	137.61
393.00	138.57
394.00	140.81
395.00	138.42
396.00	136.57
397.00	140.00
398.00	140.35
399.00	138.24
400.00	136.14
401.00	143.14
402.00	137.58
403.00	143.60
404.00	136.38
405.00	139.96
406.00	142.81
407.00	137.99
408.00	137.86
409.00	137.90
410.00	140.15
411.00	136.01
412.00	139.68
413.00	138.87
414.00	136.51
415.00	139.93
416.00	138.89
417.00	143.98
418.00	140.09
419.00	136.62
420.00	136.01
421.00	138.17
422.00	137.09
423.00	137.57
424.00	140.01
425.00	135.33
426.00	134.30
427.00	137.17
428.00	141.94
429.00	135.13
430.00	141.14
431.00	139.98
432.00	140.49
433.00	141.00
434.00	142.13
435.00	145.34
436.00	141.33
437.00	137.96
438.00	136.97
439.00	137.49
440.00	138.25
441.00	136.98
442.00	136.95
443.00	141.40
444.00	138.00
445.00	140.05
446.00	140.00
447.00	139.72
448.00	135.50
449.00	138.97
450.00	136.76
451.00	137.17
452.00	144.24
453.00	135.86
454.00	140.56
455.00	134.71
456.00	140.47
457.00	140.00
458.00	135.78
459.00	135.65
460.00	139.30
461.00	136.88
462.00	134.72
463.00	139.70
464.00	139.72
465.00	137.93
466.00	138.41
467.00	135.14
468.00	137.98
469.00	137.98
470.00	135.82
471.00	134.99
472.00	138.97
473.00	139.13
474.00	134.87
475.00	142.05
476.00	135.95
477.00	139.99
478.00	137.44
479.00	140.06
480.00	134.91
481.00	136.99
482.00	140.29
483.00	138.09
484.00	136.87
485.00	138.43
486.00	137.17
487.00	136.45
488.00	137.79
489.00	136.79
490.00	137.41
491.00	136.14
492.00	138.13
493.00	133.29
494.00	136.31
495.00	141.10
496.00	136.68
497.00	137.00
498.00	139.25
499.00	137.49
500.00	141.14
501.00	140.08
502.00	135.86
503.00	137.51
504.00	135.68
505.00	142.19
506.00	133.99
507.00	136.67
508.00	139.12
509.00	138.29
510.00	133.87
511.00	138.14
512.00	137.40
513.00	139.56
514.00	137.41
515.00	138.01
516.00	137.65
517.00	140.17
518.00	136.00
519.00	136.97
520.00	136.19
521.00	135.30
522.00	137.73
523.00	137.72
524.00	137.86
525.00	135.24
526.00	134.49
527.00	136.82
528.00	137.83
529.00	137.97
530.00	138.35
531.00	138.96
532.00	138.40
533.00	138.64
534.00	138.03
535.00	136.58
536.00	135.49
537.00	135.65
538.00	134.57
539.00	140.95
540.00	148.69
541.00	134.82
542.00	135.91
543.00	143.13
544.00	137.40
545.00	137.30
546.00	135.04
547.00	142.11
548.00	136.56
549.00	138.46
550.00	140.09
551.00	136.14
552.00	135.84
553.00	137.42
554.00	137.07
555.00	136.87
556.00	135.02
557.00	138.93
558.00	134.51
559.00	134.85
560.00	135.06
561.00	141.94
562.00	139.40
563.00	136.40
564.00	134.32
565.00	136.25
566.00	135.93
567.00	135.85
568.00	134.11
569.00	136.85
570.00	137.67
571.00	135.24
572.00	142.03
573.00	140.22
574.00	137.59
575.00	138.89
576.00	148.53
577.00	134.95
578.00	135.59
579.00	138.02
580.00	136.94
581.00	138.16
582.00	136.80
583.00	140.86
584.00	136.46
585.00	135.71
586.00	137.51
587.00	136.69
588.00	134.88
589.00	135.68
590.00	140.21
591.00	136.04
592.00	137.00
593.00	135.26
594.00	148.22
595.00	138.45
596.00	138.10
597.00	135.21
598.00	140.75
599.00	140.13
600.00	139.95
601.00	141.55
602.00	141.35
603.00	132.53
604.00	141.71
605.00	139.79
606.00	138.04
607.00	136.87
608.00	147.22
609.00	144.26
610.00	140.21
611.00	144.53
612.00	146.58
613.00	143.92
614.00	151.37
615.00	184.29
616.00	176.20
617.00	167.27
618.00	163.70
619.00	165.83
620.00	168.87
621.00	210.00
622.00	186.92
623.00	178.99
624.00	192.13
625.00	192.61
626.00	192.39
627.00	202.63
628.00	250.55
629.00	248.60
630.00	245.62
631.00	292.06
632.00	2383.25
633.00	4089.47
634.00	4092.48
635.00	4272.20
636.00	510.69
637.00	291.98
638.00	246.45
639.00	211.01
640.00	202.23
641.00	198.97
642.00	189.71
643.00	174.35
644.00	171.40
645.00	160.46
646.00	155.56
647.00	161.41
648.00	153.58
649.00	145.85
650.00	152.41
651.00	146.86
652.00	143.16
653.00	144.27
654.00	140.00
655.00	144.95
656.00	143.78
657.00	145.36
658.00	140.63
659.00	140.59
660.00	139.18
661.00	138.75
662.00	137.06
663.00	137.41
664.00	139.71
665.00	142.12
666.00	140.90
667.00	139.11
668.00	139.00
669.00	139.94
670.00	141.90
671.00	134.30
672.00	138.56
673.00	139.67
674.00	137.60
675.00	135.24
676.00	136.24
677.00	140.24
678.00	135.57
679.00	140.88
680.00	134.25
681.00	137.88
682.00	137.31
683.00	137.06
684.00	136.40
685.00	135.96
686.00	131.23
687.00	137.99
688.00	136.00
689.00	137.07
690.00	134.98
691.00	135.69
692.00	134.92
693.00	134.33
694.00	136.46
695.00	135.27
696.00	135.31
697.00	141.36
698.00	136.59
699.00	133.01
700.00	137.06
701.00	137.56
702.00	137.53
703.00	141.32
704.00	141.12
705.00	133.71
706.00	138.85
707.00	138.53
708.00	145.81
709.00	138.99
710.00	134.77
711.00	139.65
712.00	135.17
713.00	136.75
714.00	137.40
715.00	135.55
716.00	141.71
717.00	135.26
718.00	137.86
719.00	136.99
720.00	137.03
721.00	137.57
722.00	136.96
723.00	136.39
724.00	134.60
725.00	138.52
726.00	136.78
727.00	141.87
728.00	140.20
729.00	141.99
730.00	141.19
731.00	136.05
732.00	135.87
733.00	139.60
734.00	137.40
735.00	138.26
736.00	138.97
737.00	139.48
738.00	137.91
739.00	137.17
740.00	133.54
741.00	139.89
742.00	133.35
743.00	136.04
744.00	136.58
745.00	136.06
746.00	136.77
747.00	139.29
748.00	133.15
749.00	136.22
750.00	135.14
751.00	136.00
752.00	138.03
753.00	139.53
754.00	136.88
755.00	137.04
756.00	135.69
757.00	136.92
758.00	139.33
759.00	133.76
760.00	139.70
761.00	134.07
762.00	134.79
763.00	142.73
764.00	138.11
765.00	129.98
766.00	136.87
767.00	132.41
768.00	138.06
769.00	138.01
770.00	135.99
771.00	131.25
772.00	136.17
773.00	134.32
774.00	134.49
775.00	138.60
776.00	135.27
777.00	139.81
778.00	138.37
779.00	135.08
780.00	141.51
781.00	132.76
782.00	135.00
783.00	139.76
784.00	135.94
785.00	133.69
786.00	137.64
787.00	142.69
788.00	136.60
789.00	138.57
790.00	135.36
791.00	138.17
792.00	136.98
793.00	136.26
794.00	137.78
795.00	139.73
796.00	136.47
797.00	135.40
798.00	134.97
799.00	140.74
800.00	134.88
801.00	136.49
802.00	135.93
803.00	132.52
804.00	133.86
805.00	133.05
806.00	136.12
807.00	134.91
808.00	136.93
809.00	136.33
810.00	136.02
811.00	135.91
812.00	140.44
813.00	136.74
814.00	137.45
815.00	137.15
816.00	137.05
817.00	134.00
818.00	134.25
819.00	134.72
820.00	136.31
821.00	138.01
822.00	134.45
823.00	140.05
824.00	137.95
825.00	141.46
826.00	136.08
827.00	138.19
828.00	132.47
829.00	134.49
830.00	136.06
831.00	132.86
832.00	132.37
833.00	133.47
834.00	136.90
835.00	136.54
836.00	133.03
837.00	141.26
838.00	137.50
839.00	135.04
840.00	137.51
841.00	138.71
842.00	137.94
843.00	132.60
844.00	143.34
845.00	137.17
846.00	133.90
847.00	137.91
848.00	132.88
849.00	136.61
850.00	137.03
851.00	137.63
852.00	133.24
853.00	138.39
854.00	134.20
855.00	136.71
856.00	131.77
857.00	135.02
858.00	136.59
859.00	132.26
860.00	134.13
861.00	130.65
862.00	142.04
863.00	137.85
864.00	135.18
865.00	134.36
866.00	134.90
867.00	133.68
868.00	135.70
869.00	135.44
870.00	136.76
871.00	134.34
872.00	132.43
873.00	135.74
874.00	138.00
875.00	134.00
876.00	133.83
877.00	137.35
878.00	136.68
879.00	135.13
880.00	133.96
881.00	138.47
882.00	137.73
883.00	135.04
884.00	139.63
885.00	139.55
886.00	139.41
887.00	137.25
888.00	128.56
889.00	135.56
890.00	134.92
891.00	135.29
892.00	135.08
893.00	139.32
894.00	136.97
895.00	137.86
896.00	126.08
897.00	136.58
898.00	136.95
899.00	136.96
900.00	138.94
901.00	135.92
902.00	135.42
903.00	136.60
904.00	133.78
905.00	136.61
906.00	139.02
907.00	136.19
908.00	134.87
909.00	137.25
910.00	135.94
911.00	136.02
912.00	134.58
913.00	133.29
914.00	133.00
915.00	133.42
916.00	142.02
917.00	134.05
918.00	136.57
919.00	138.70
920.00	135.92
921.00	137.42
922.00	137.72
923.00	143.82
924.00	136.57
925.00	136.54
926.00	136.99
927.00	135.61
928.00	135.34
929.00	138.79
930.00	138.79
931.00	135.92
932.00	132.85
933.00	139.01
934.00	135.25
935.00	131.63
936.00	136.60
937.00	136.28
938.00	137.92
939.00	140.41
940.00	138.11
941.00	134.30
942.00	133.57
943.00	140.36
944.00	136.28
945.00	136.66
946.00	135.62
947.00	135.93
948.00	136.91
949.00	132.61
950.00	133.28
951.00	135.49
952.00	130.18
953.00	136.98
954.00	136.24
955.00	133.98
956.00	138.84
957.00	139.31
958.00	136.55
959.00	136.38
960.00	136.03
961.00	133.52
962.00	139.28
963.00	136.92
964.00	132.79
965.00	129.05
966.00	135.17
967.00	137.97
968.00	134.77
969.00	141.12
970.00	139.77
971.00	134.52
972.00	137.67
973.00	137.09
974.00	132.93
975.00	135.75
976.00	138.14
977.00	141.89
978.00	137.97
979.00	137.82
980.00	136.86
981.00	138.65
982.00	138.18
983.00	137.90
984.00	134.46
985.00	134.43
986.00	137.24
987.00	135.66
988.00	136.32
989.00	137.13
990.00	138.89
991.00	140.22
992.00	139.79
993.00	137.17
994.00	134.02
995.00	135.23
996.00	137.06
997.00	137.03
998.00	139.25
999.00	136.46
1000.00	136.74
>>>>>End Processed Spectral Data<<<<<
